Cadmium mättad 1s, 2 average
Integration time [ms]: 1000,000
Averaging Nr. [scans]: 2
Smoothing Nr. [pixels]: 0
Data measured with spectrometer [name]: 1804349U2
Wave   ;Sample   ;Dark     ;Reference;Scope
[nm]   ;[counts] ;[counts] ;[counts] 

318,182;   99,000;  -10,500;    0,000
318,201;  103,500;  100,000;    0,000
318,220;  551,500;  378,000;    0,000
318,240;  435,500;  358,000;    0,000
318,259;  -94,500; -136,500;    0,000
318,278;  256,500;  162,500;    0,000
318,297;  433,000;  379,500;    0,000
318,317;  122,000;   43,000;    0,000
318,336;  197,500;   44,500;    0,000
318,355;  215,000;  107,500;    0,000
318,374;  483,000;  387,000;    0,000
318,393; -188,500; -315,500;    0,000
318,413;   25,500; -110,500;    0,000
318,432;   16,000;  -72,000;    0,000
318,451;   92,000;   25,500;    0,000
318,470; -248,500; -279,500;    0,000
318,489; -433,500; -441,000;    0,000
318,509;   22,500;  -75,500;    0,000
318,528;  173,500;  128,000;    0,000
318,547;  639,000;  584,500;    0,000
318,566;  228,500;  154,000;    0,000
318,585; -108,500; -184,000;    0,000
318,604;  -52,500; -166,000;    0,000
318,624; -108,500; -230,000;    0,000
318,643;  166,000;   82,000;    0,000
318,662;   88,000;   50,500;    0,000
318,681;   81,500;  -79,500;    0,000
318,700;  -28,500;  -91,500;    0,000
318,719;  125,000; -101,500;    0,000
318,739;  -63,000; -145,500;    0,000
318,758;  732,500;  576,000;    0,000
318,777;  603,500;  413,000;    0,000
318,796; -336,500; -478,000;    0,000
318,815;    0,500; -105,000;    0,000
318,834;  490,000;  330,000;    0,000
318,854;  394,500;  195,000;    0,000
318,873;  160,000;   -5,000;    0,000
318,892;  308,500;  164,000;    0,000
318,911;  117,000; -151,000;    0,000
318,930;  379,000;  183,000;    0,000
318,949;  119,500;  -29,500;    0,000
318,968;   45,000; -125,500;    0,000
318,987;  303,500;  131,500;    0,000
319,007;  -87,500; -170,000;    0,000
319,026;  354,000;  187,500;    0,000
319,045;  -36,500; -246,000;    0,000
319,064;  800,000;  658,000;    0,000
319,083;  424,000;  347,500;    0,000
319,102;  195,500;   45,500;    0,000
319,121;  -51,000; -170,500;    0,000
319,140;   79,500;  -91,000;    0,000
319,160;  889,000;  701,000;    0,000
319,179;  -61,500; -153,500;    0,000
319,198;   95,000;  -65,500;    0,000
319,217;  444,000;  230,500;    0,000
319,236; -393,500; -497,000;    0,000
319,255; -195,000; -341,000;    0,000
319,274;  143,500;   47,000;    0,000
319,293;    5,000; -110,000;    0,000
319,312;  395,000;  224,000;    0,000
319,331;  129,000;  -72,000;    0,000
319,350;  356,500;  212,000;    0,000
319,370;  178,500;   51,500;    0,000
319,389;  330,500;  272,500;    0,000
319,408;  -93,000; -243,500;    0,000
319,427;   33,500;  -92,500;    0,000
319,446;  667,500;  529,000;    0,000
319,465;  220,500;  141,500;    0,000
319,484;   52,000; -198,000;    0,000
319,503; -112,500; -293,000;    0,000
319,522;  125,500;  -70,500;    0,000
319,541;  765,500;  627,500;    0,000
319,560;   61,000; -152,500;    0,000
319,579;  326,000;  107,500;    0,000
319,598;  676,000;  498,000;    0,000
319,617;   -1,000; -165,500;    0,000
319,637;    6,500; -209,500;    0,000
319,656;  -23,500; -145,500;    0,000
319,675;  513,500;  416,500;    0,000
319,694;  511,000;  299,500;    0,000
319,713;  -56,000; -259,000;    0,000
319,732; -157,500; -297,000;    0,000
319,751;  195,000;  -29,000;    0,000
319,770;  562,000;  404,000;    0,000
319,789;  170,000;  -67,500;    0,000
319,808;   19,000; -106,500;    0,000
319,827;  259,000;  184,500;    0,000
319,846;  -36,500; -266,000;    0,000
319,865; -113,500; -470,500;    0,000
319,884;   59,000; -245,000;    0,000
319,903;  762,000;  624,500;    0,000
319,922;  146,500;  -52,000;    0,000
319,941;  -17,500; -193,000;    0,000
319,960;  239,000;   36,500;    0,000
319,979;  442,000;  287,500;    0,000
319,998;  863,000;  635,000;    0,000
320,017;  116,000;  -73,500;    0,000
320,036;   67,500; -158,000;    0,000
320,055;  535,000;  339,000;    0,000
320,074;  262,000;   95,500;    0,000
320,093;  523,000;  168,000;    0,000
320,112;  249,000;   56,000;    0,000
320,131; -235,000; -440,500;    0,000
320,150; -282,500; -570,500;    0,000
320,169;   69,500; -166,500;    0,000
320,188;  191,500;   49,000;    0,000
320,207;  531,000;  377,500;    0,000
320,226;   68,500;  -70,500;    0,000
320,245;  163,500; -184,500;    0,000
320,264; -113,000; -333,500;    0,000
320,283;  315,000;   53,000;    0,000
320,302;  791,500;  495,500;    0,000
320,321;   66,000;  -75,500;    0,000
320,340;  -35,500; -139,500;    0,000
320,359;  128,000;  -30,000;    0,000
320,378;  289,500;   41,000;    0,000
320,397;  175,000;  -87,500;    0,000
320,416;  105,000;  -82,000;    0,000
320,435;   25,500; -178,000;    0,000
320,454;  344,000;  122,500;    0,000
320,472;  -50,500; -346,000;    0,000
320,491;  334,500;   77,000;    0,000
320,510;  986,000;  668,000;    0,000
320,529;  136,500;  -89,000;    0,000
320,548;  699,500;  317,000;    0,000
320,567;  518,000;  209,500;    0,000
320,586;  361,000;   40,500;    0,000
320,605; -143,000; -392,500;    0,000
320,624;  257,000; -173,000;    0,000
320,643;  229,500; -272,000;    0,000
320,662;  827,500; -256,500;    0,000
320,681; 1944,500;  243,000;    0,000
320,700; 1900,000; -130,500;    0,000
320,719; 1480,500;  -61,000;    0,000
320,738;  690,500;   22,000;    0,000
320,756;  832,000;  404,500;    0,000
320,775;   59,000; -265,500;    0,000
320,794;  355,000;  122,500;    0,000
320,813;  433,000;  124,000;    0,000
320,832;   54,500; -216,000;    0,000
320,851;  125,500;  -89,000;    0,000
320,870;  358,500;   72,000;    0,000
320,889;  803,000;  472,000;    0,000
320,908;  165,500; -123,000;    0,000
320,927;  319,500;   37,500;    0,000
320,945;  657,500;  391,000;    0,000
320,964;  530,500;  168,000;    0,000
320,983;  445,500;  200,500;    0,000
321,002;  208,000;  -19,500;    0,000
321,021;  345,000;  121,500;    0,000
321,040;  515,500;  265,500;    0,000
321,059;   78,000; -169,500;    0,000
321,078;   91,000; -126,000;    0,000
321,097;  199,000;  -66,000;    0,000
321,115;  122,000; -164,500;    0,000
321,134;  915,500;  603,500;    0,000
321,153;   67,500; -239,000;    0,000
321,172;  115,500; -164,000;    0,000
321,191;  940,000;  614,500;    0,000
321,210;  263,000;  -83,500;    0,000
321,229;  352,500;   70,500;    0,000
321,247;  418,000;   93,500;    0,000
321,266;  462,000;   74,500;    0,000
321,285;  232,000;   12,000;    0,000
321,304;  413,000;  156,000;    0,000
321,323;  142,500; -188,000;    0,000
321,342;  408,500;   71,500;    0,000
321,361;  500,000;  231,000;    0,000
321,379;  354,500;  125,000;    0,000
321,398;  230,500;  -50,000;    0,000
321,417;  250,000;  -58,500;    0,000
321,436;  192,000;  -77,500;    0,000
321,455;  235,500; -129,000;    0,000
321,474;  266,500;   17,000;    0,000
321,492;  492,500;  179,500;    0,000
321,511; -133,000; -415,500;    0,000
321,530;  -53,500; -263,000;    0,000
321,549;  144,000; -114,500;    0,000
321,568; 1047,000;  675,000;    0,000
321,586; -136,000; -563,500;    0,000
321,605; -310,000; -566,000;    0,000
321,624;  236,000; -160,500;    0,000
321,643;  602,500;  461,500;    0,000
321,662;  535,500;  271,000;    0,000
321,680;  421,500;   17,000;    0,000
321,699;  246,000;  -59,500;    0,000
321,718;  274,500; -118,500;    0,000
321,737;  740,000;  381,500;    0,000
321,756;  314,000;  -10,500;    0,000
321,774;  100,500; -147,000;    0,000
321,793; -128,500; -315,000;    0,000
321,812;  234,500;   42,500;    0,000
321,831;  339,500;   47,500;    0,000
321,850;  728,000;  362,500;    0,000
321,868;  410,500;   11,000;    0,000
321,887;  -10,000; -326,500;    0,000
321,906;  324,000;  -12,000;    0,000
321,925;  354,000;  -10,500;    0,000
321,943;   75,500; -292,000;    0,000
321,962;   63,000; -228,000;    0,000
321,981;  496,500;  118,500;    0,000
322,000;   65,000; -356,500;    0,000
322,018;  628,500;  286,500;    0,000
322,037;  351,500;   77,500;    0,000
322,056;  444,000;  114,000;    0,000
322,075;  326,000;  -55,000;    0,000
322,093;  195,000; -108,500;    0,000
322,112;  561,000;  186,000;    0,000
322,131;  348,500; -123,500;    0,000
322,150;  656,000;  287,500;    0,000
322,168;  474,500;  105,000;    0,000
322,187;  860,500;  603,500;    0,000
322,206;   94,000; -207,500;    0,000
322,225;  544,000;  272,000;    0,000
322,243;  254,500;  -10,500;    0,000
322,262;  411,000;   77,500;    0,000
322,281;  413,500;   14,500;    0,000
322,300;  447,000;  196,000;    0,000
322,318;  316,500;   -2,500;    0,000
322,337;  493,000;   81,500;    0,000
322,356;  225,000; -261,500;    0,000
322,374;  543,500;   74,000;    0,000
322,393;  758,000;  394,000;    0,000
322,412;  949,000;  654,500;    0,000
322,431;  121,000; -201,500;    0,000
322,449;  199,500;  -71,000;    0,000
322,468;  696,500;  332,500;    0,000
322,487;  275,000;   92,500;    0,000
322,505;  367,000;   14,000;    0,000
322,524;  262,500;  -78,000;    0,000
322,543;  692,000;  222,500;    0,000
322,561;  950,500;  642,000;    0,000
322,580;  303,000;   -5,000;    0,000
322,599;  420,500;   68,000;    0,000
322,618;  786,500;  310,000;    0,000
322,636;  681,000;  211,000;    0,000
322,655;  507,500;   -1,000;    0,000
322,674;  333,500; -122,000;    0,000
322,692;  787,000;  381,500;    0,000
322,711;  842,000;  451,500;    0,000
322,730;  271,000; -201,000;    0,000
322,748;  225,000; -132,000;    0,000
322,767;  938,500;  498,500;    0,000
322,786; 1269,500;  916,500;    0,000
322,804;  748,500;  264,500;    0,000
322,823;  225,500; -163,000;    0,000
322,842;  857,000;  395,500;    0,000
322,860; 1112,000;  649,000;    0,000
322,879;  194,000; -312,000;    0,000
322,898;  215,500; -115,000;    0,000
322,916;  922,000;  533,000;    0,000
322,935;  146,500; -279,500;    0,000
322,953;  220,500; -272,000;    0,000
322,972;  456,000;   74,000;    0,000
322,991;  827,000;  459,000;    0,000
323,009;  784,000;  367,500;    0,000
323,028;  231,500; -186,000;    0,000
323,047;  326,500; -116,000;    0,000
323,065;  458,500;   89,000;    0,000
323,084;  597,500;  106,000;    0,000
323,103;  535,500;  -10,500;    0,000
323,121;  515,000;  -58,500;    0,000
323,140;  245,000; -299,000;    0,000
323,158;  866,500;  346,500;    0,000
323,177; 1024,000;  377,000;    0,000
323,196;  547,000;  -71,500;    0,000
323,214;  398,000; -280,500;    0,000
323,233;  585,500; -111,500;    0,000
323,251;  294,000; -415,000;    0,000
323,270;  600,000;  -13,500;    0,000
323,289; 1103,000;  647,000;    0,000
323,307;  521,000;   15,500;    0,000
323,326;  412,500; -280,000;    0,000
323,344;  737,000;   22,500;    0,000
323,363;  904,500;  255,000;    0,000
323,382; 1086,500;  395,000;    0,000
323,400;  297,000; -307,500;    0,000
323,419;  502,000; -186,500;    0,000
323,437;  560,000;  -70,000;    0,000
323,456;  621,000; -167,000;    0,000
323,474;  925,000;   88,500;    0,000
323,493; 3538,500; 2898,000;    0,000
323,512; 1154,500;  307,500;    0,000
323,530;  895,000;  136,500;    0,000
323,549;  290,000; -299,000;    0,000
323,567;  565,500; -117,000;    0,000
323,586;  639,500;  -55,500;    0,000
323,604;  841,500;   85,500;    0,000
323,623;  719,000;  -20,000;    0,000
323,642;  583,000;  -94,500;    0,000
323,660;  301,500; -494,500;    0,000
323,679;  704,500; -179,000;    0,000
323,697;  625,000; -139,500;    0,000
323,716;  293,500; -329,500;    0,000
323,734; 1186,000;  521,500;    0,000
323,753; 1230,500;  402,500;    0,000
323,771;  897,000;  -66,500;    0,000
323,790;  692,500; -127,000;    0,000
323,808;  813,500;  -93,000;    0,000
323,827;  351,000; -442,500;    0,000
323,846;  877,000;   -1,000;    0,000
323,864;  621,500; -267,500;    0,000
323,883; 1328,500;  365,000;    0,000
323,901;  969,000;   66,000;    0,000
323,920; 1080,000;  147,500;    0,000
323,938;  817,500; -177,000;    0,000
323,957;  576,000; -441,000;    0,000
323,975; 1563,500;  652,500;    0,000
323,994;  612,000; -328,000;    0,000
324,012;  972,000; -113,500;    0,000
324,031;  751,000; -189,000;    0,000
324,049;  747,000; -227,000;    0,000
324,068;  939,500; -216,000;    0,000
324,086; 1029,000;   49,000;    0,000
324,105; 1260,500;  312,000;    0,000
324,123; 1118,500;  215,000;    0,000
324,142; 1037,000;   18,500;    0,000
324,160;  665,000; -336,000;    0,000
324,179; 1295,000;  230,000;    0,000
324,197; 1511,000;  407,500;    0,000
324,216; 1044,500; -127,500;    0,000
324,234; 1402,500;  126,000;    0,000
324,253;  863,000; -310,000;    0,000
324,271;  798,500; -347,500;    0,000
324,290; 1156,000;  -79,500;    0,000
324,308; 1161,500; -153,000;    0,000
324,326; 1825,000;  397,000;    0,000
324,345; 1049,500; -264,000;    0,000
324,363; 1225,500; -127,000;    0,000
324,382; 1307,000; -270,000;    0,000
324,400; 1769,000;  197,000;    0,000
324,419; 1472,500;  -63,500;    0,000
324,437; 1429,000;  -27,500;    0,000
324,456; 1326,500; -239,000;    0,000
324,474; 1232,000; -373,500;    0,000
324,493; 1490,500; -368,000;    0,000
324,511; 1987,000;  191,000;    0,000
324,529; 1695,500;   -3,000;    0,000
324,548; 1786,500;  -39,500;    0,000
324,566; 2392,000;  468,000;    0,000
324,585; 2445,000;  353,000;    0,000
324,603; 1731,500; -398,000;    0,000
324,622; 1816,000; -417,500;    0,000
324,640; 1641,000; -682,000;    0,000
324,658; 1531,500; -640,500;    0,000
324,677; 2076,500;   93,000;    0,000
324,695; 2351,000;  360,500;    0,000
324,714; 2049,000;   65,000;    0,000
324,732; 2257,000;  149,500;    0,000
324,751; 1574,000; -486,500;    0,000
324,769; 2899,500;  686,000;    0,000
324,787; 2501,500;   29,000;    0,000
324,806; 2846,000;  161,000;    0,000
324,824; 2999,500;   40,500;    0,000
324,843; 3202,500;   61,500;    0,000
324,861; 3254,000;  260,000;    0,000
324,879; 3047,000;  -17,000;    0,000
324,898; 3127,000; -145,500;    0,000
324,916; 3521,000;   64,000;    0,000
324,935; 3722,000; -118,500;    0,000
324,953; 3351,500; -355,500;    0,000
324,971; 3417,500;  -71,000;    0,000
324,990; 3166,000; -272,000;    0,000
325,008; 3751,500;  125,500;    0,000
325,026; 4380,500;  207,500;    0,000
325,045; 4837,500; -141,000;    0,000
325,063; 5767,500;   60,500;    0,000
325,082; 6165,000; -167,500;    0,000
325,100; 8131,500; -110,500;    0,000
325,118;13506,000; -100,500;    0,000
325,137;24555,000;  235,500;    0,000
325,155;36488,500;   28,000;    0,000
325,173;50463,000;   43,000;    0,000
325,192;60361,000; -126,500;    0,000
325,210;63211,000; -251,500;    0,000
325,228;63146,500;  538,500;    0,000
325,247;63229,500;  -10,500;    0,000
325,265;63146,500;  261,000;    0,000
325,284;63229,500;  326,500;    0,000
325,302;63146,500;  348,000;    0,000
325,320;63229,500;   44,000;    0,000
325,339;63146,500; -156,500;    0,000
325,357;63229,500;  284,000;    0,000
325,375;56482,000;  321,000;    0,000
325,394; 9973,500;   -7,500;    0,000
325,412; 6728,500;   26,000;    0,000
325,430; 5840,500; -103,500;    0,000
325,449; 5990,000;  375,000;    0,000
325,467; 5577,500; -253,000;    0,000
325,485; 5708,000; -205,000;    0,000
325,503; 6135,500;  394,500;    0,000
325,522; 5678,000;   37,000;    0,000
325,540; 5718,500;  166,000;    0,000
325,558; 5745,500;   64,500;    0,000
325,577; 5588,500;   47,500;    0,000
325,595; 5554,500; -282,000;    0,000
325,613; 6900,500;  -42,500;    0,000
325,632; 8578,000;  -85,500;    0,000
325,650; 9504,000;  362,000;    0,000
325,668; 9509,500;  192,500;    0,000
325,686; 9542,000; -129,000;    0,000
325,705; 8594,000; -279,500;    0,000
325,723;10542,500;   11,000;    0,000
325,741;14221,000;  745,000;    0,000
325,760;18921,500; -436,000;    0,000
325,778;28816,000;   45,000;    0,000
325,796;36246,500;  415,000;    0,000
325,814;38065,000;  224,000;    0,000
325,833;35294,000;  -43,500;    0,000
325,851;43761,000;  -61,500;    0,000
325,869;63229,500;  331,000;    0,000
325,888;63146,500;  781,500;    0,000
325,906;63229,500;    6,500;    0,000
325,924;63146,500; -258,000;    0,000
325,942;63229,500;  -55,000;    0,000
325,961;63146,500; -145,000;    0,000
325,979;63229,500; -119,500;    0,000
325,997;63146,500; -132,000;    0,000
326,015;63229,500;  111,000;    0,000
326,034;63146,500; -257,000;    0,000
326,052;63229,500; -470,000;    0,000
326,070;63146,500; -103,000;    0,000
326,088;63229,500; -343,500;    0,000
326,107;63146,500;  706,500;    0,000
326,125;63229,500;   90,500;    0,000
326,143;63146,500;   64,000;    0,000
326,161;63229,500;  241,500;    0,000
326,179;63146,500; -362,000;    0,000
326,198;63229,500; -356,000;    0,000
326,216;63146,500;  102,000;    0,000
326,234;63229,500;  216,500;    0,000
326,252;63146,500; -404,500;    0,000
326,271;63229,500;    1,000;    0,000
326,289;63146,500;  -28,000;    0,000
326,307;63229,500;  313,000;    0,000
326,325;63146,500;  147,000;    0,000
326,343;63229,500; -258,500;    0,000
326,362;63146,500;  232,500;    0,000
326,380;63229,500;   58,500;    0,000
326,398;63146,500; -115,000;    0,000
326,416;63229,500;  -62,000;    0,000
326,434;63146,500; -130,500;    0,000
326,453;63229,500;  690,000;    0,000
326,471;63146,500; -120,000;    0,000
326,489;63229,500;  -66,500;    0,000
326,507;63146,500; -143,500;    0,000
326,525;63229,500;  355,500;    0,000
326,544;63146,500; -102,500;    0,000
326,562;63229,500; -120,000;    0,000
326,580;63146,500;   24,500;    0,000
326,598;63229,500;  388,000;    0,000
326,616;63146,500; -266,500;    0,000
326,634;63229,500;  -39,500;    0,000
326,653;63146,500; -174,500;    0,000
326,671;63229,500;  269,000;    0,000
326,689;63146,500;  -30,500;    0,000
326,707;63229,500; -396,500;    0,000
326,725;63146,500;  -94,000;    0,000
326,743;63229,500; -545,500;    0,000
326,762;63146,500;   14,500;    0,000
326,780;63229,500; -145,500;    0,000
326,798;63146,500; -117,500;    0,000
326,816;63229,500;  119,500;    0,000
326,834;63146,500; -345,000;    0,000
326,852;63229,500;   95,000;    0,000
326,870;63146,500;  -98,000;    0,000
326,889;63229,500;  -95,000;    0,000
326,907;63146,500;  -20,500;    0,000
326,925;63229,500;  -56,500;    0,000
326,943;63146,500; -471,000;    0,000
326,961;63229,500;  181,500;    0,000
326,979;63146,500;  -89,000;    0,000
326,997;63229,500; -125,500;    0,000
327,015;63146,500;  146,500;    0,000
327,034;63229,500; -258,000;    0,000
327,052;63146,500;  396,500;    0,000
327,070;63229,500;   32,500;    0,000
327,088;63146,500; -228,000;    0,000
327,106;63229,500;    3,000;    0,000
327,124;63146,500; -203,000;    0,000
327,142;63229,500;    2,000;    0,000
327,160;63146,500;  -59,000;    0,000
327,178;63229,500;  211,500;    0,000
327,196;63146,500;  351,000;    0,000
327,215;63229,500; -123,000;    0,000
327,233;63146,500; -158,500;    0,000
327,251;63229,500; -253,500;    0,000
327,269;63146,500;   60,500;    0,000
327,287;63229,500;  114,000;    0,000
327,305;63146,500; -478,500;    0,000
327,323;63229,500; -139,500;    0,000
327,341;63146,500;   70,000;    0,000
327,359;63229,500;   42,000;    0,000
327,377;63146,500; -131,500;    0,000
327,395;63229,500;   74,500;    0,000
327,413;63146,500;  336,000;    0,000
327,431;63229,500; -135,000;    0,000
327,450;63146,500;   -3,000;    0,000
327,468;63229,500; -341,000;    0,000
327,486;63146,500;  160,000;    0,000
327,504;63229,500; -233,500;    0,000
327,522;63146,500;    2,500;    0,000
327,540;63229,500;   22,000;    0,000
327,558;63146,500; -252,000;    0,000
327,576;48656,000;  111,500;    0,000
327,594;63146,500; -333,000;    0,000
327,612; 4420,500; -128,000;    0,000
327,630;28176,500;  419,000;    0,000
327,648; 4552,500;  -25,500;    0,000
327,666; 4210,000; -158,500;    0,000
327,684; 4082,500;  -13,500;    0,000
327,702; 4358,000;  173,000;    0,000
327,720; 3552,000; -401,000;    0,000
327,738; 3466,000; -326,000;    0,000
327,756; 3636,500;    7,500;    0,000
327,774; 3762,000;  183,000;    0,000
327,792; 3320,500; -259,500;    0,000
327,810; 3368,000; -184,000;    0,000
327,828; 3359,500; -248,500;    0,000
